# E (eV)   ldos(E)   pdos(E)
  -5.833  0.000E+00  0.000E+00
  -5.813  0.132E-01  0.132E-01
  -5.793  0.289E-01  0.289E-01
  -5.773  0.361E-01  0.361E-01
  -5.753  0.447E-01  0.447E-01
  -5.733  0.522E-01  0.522E-01
  -5.713  0.541E-01  0.541E-01
  -5.693  0.580E-01  0.580E-01
  -5.673  0.625E-01  0.625E-01
  -5.653  0.671E-01  0.671E-01
  -5.633  0.717E-01  0.717E-01
  -5.613  0.735E-01  0.735E-01
  -5.593  0.759E-01  0.759E-01
  -5.573  0.781E-01  0.781E-01
  -5.553  0.805E-01  0.805E-01
  -5.533  0.834E-01  0.834E-01
  -5.513  0.863E-01  0.863E-01
  -5.493  0.893E-01  0.893E-01
  -5.473  0.916E-01  0.916E-01
  -5.453  0.926E-01  0.926E-01
  -5.433  0.943E-01  0.943E-01
  -5.413  0.961E-01  0.961E-01
  -5.393  0.979E-01  0.979E-01
  -5.373  0.997E-01  0.997E-01
  -5.353  0.102E+00  0.102E+00
  -5.333  0.104E+00  0.104E+00
  -5.313  0.106E+00  0.106E+00
  -5.293  0.108E+00  0.108E+00
  -5.273  0.109E+00  0.109E+00
  -5.253  0.110E+00  0.110E+00
  -5.233  0.111E+00  0.111E+00
  -5.213  0.113E+00  0.113E+00
  -5.193  0.114E+00  0.114E+00
  -5.173  0.116E+00  0.116E+00
  -5.153  0.117E+00  0.117E+00
  -5.133  0.119E+00  0.119E+00
  -5.113  0.120E+00  0.120E+00
  -5.093  0.122E+00  0.122E+00
  -5.073  0.124E+00  0.124E+00
  -5.053  0.125E+00  0.125E+00
  -5.033  0.126E+00  0.126E+00
  -5.013  0.127E+00  0.127E+00
  -4.993  0.128E+00  0.128E+00
  -4.973  0.129E+00  0.129E+00
  -4.953  0.131E+00  0.131E+00
  -4.933  0.132E+00  0.132E+00
  -4.913  0.133E+00  0.133E+00
  -4.893  0.135E+00  0.135E+00
  -4.873  0.136E+00  0.136E+00
  -4.853  0.137E+00  0.137E+00
  -4.833  0.139E+00  0.139E+00
  -4.813  0.140E+00  0.140E+00
  -4.793  0.142E+00  0.142E+00
  -4.773  0.143E+00  0.143E+00
  -4.753  0.144E+00  0.144E+00
  -4.733  0.145E+00  0.145E+00
  -4.713  0.146E+00  0.146E+00
  -4.693  0.147E+00  0.147E+00
  -4.673  0.149E+00  0.149E+00
  -4.653  0.150E+00  0.150E+00
  -4.633  0.151E+00  0.151E+00
  -4.613  0.152E+00  0.152E+00
  -4.593  0.154E+00  0.154E+00
  -4.573  0.155E+00  0.155E+00
  -4.553  0.157E+00  0.157E+00
  -4.533  0.158E+00  0.158E+00
  -4.513  0.160E+00  0.160E+00
  -4.493  0.161E+00  0.161E+00
  -4.473  0.162E+00  0.162E+00
  -4.453  0.163E+00  0.163E+00
  -4.433  0.165E+00  0.165E+00
  -4.413  0.166E+00  0.166E+00
  -4.393  0.167E+00  0.167E+00
  -4.373  0.169E+00  0.169E+00
  -4.353  0.170E+00  0.170E+00
  -4.333  0.172E+00  0.172E+00
  -4.313  0.173E+00  0.173E+00
  -4.293  0.175E+00  0.175E+00
  -4.273  0.176E+00  0.176E+00
  -4.253  0.178E+00  0.178E+00
  -4.233  0.180E+00  0.180E+00
  -4.213  0.181E+00  0.181E+00
  -4.193  0.183E+00  0.183E+00
  -4.173  0.185E+00  0.185E+00
  -4.153  0.186E+00  0.186E+00
  -4.133  0.188E+00  0.188E+00
  -4.113  0.190E+00  0.190E+00
  -4.093  0.191E+00  0.191E+00
  -4.073  0.193E+00  0.193E+00
  -4.053  0.195E+00  0.195E+00
  -4.033  0.197E+00  0.197E+00
  -4.013  0.199E+00  0.199E+00
  -3.993  0.201E+00  0.201E+00
  -3.973  0.204E+00  0.204E+00
  -3.953  0.206E+00  0.206E+00
  -3.933  0.208E+00  0.208E+00
  -3.913  0.211E+00  0.211E+00
  -3.893  0.213E+00  0.213E+00
  -3.873  0.216E+00  0.216E+00
  -3.853  0.219E+00  0.219E+00
  -3.833  0.222E+00  0.222E+00
  -3.813  0.225E+00  0.225E+00
  -3.793  0.228E+00  0.228E+00
  -3.773  0.231E+00  0.231E+00
  -3.753  0.235E+00  0.235E+00
  -3.733  0.239E+00  0.239E+00
  -3.713  0.243E+00  0.243E+00
  -3.693  0.248E+00  0.248E+00
  -3.673  0.253E+00  0.253E+00
  -3.653  0.259E+00  0.259E+00
  -3.633  0.266E+00  0.266E+00
  -3.613  0.274E+00  0.274E+00
  -3.593  0.283E+00  0.283E+00
  -3.573  0.303E+00  0.303E+00
  -3.553  0.345E+00  0.345E+00
  -3.533  0.316E+00  0.316E+00
  -3.513  0.316E+00  0.316E+00
  -3.493  0.316E+00  0.316E+00
  -3.473  0.307E+00  0.307E+00
  -3.453  0.302E+00  0.302E+00
  -3.433  0.308E+00  0.308E+00
  -3.413  0.310E+00  0.310E+00
  -3.393  0.305E+00  0.305E+00
  -3.373  0.297E+00  0.297E+00
  -3.353  0.293E+00  0.293E+00
  -3.333  0.290E+00  0.290E+00
  -3.313  0.287E+00  0.287E+00
  -3.293  0.285E+00  0.285E+00
  -3.273  0.283E+00  0.283E+00
  -3.253  0.280E+00  0.280E+00
  -3.233  0.276E+00  0.276E+00
  -3.213  0.271E+00  0.271E+00
  -3.193  0.268E+00  0.268E+00
  -3.173  0.266E+00  0.266E+00
  -3.153  0.264E+00  0.264E+00
  -3.133  0.262E+00  0.262E+00
  -3.113  0.261E+00  0.261E+00
  -3.093  0.259E+00  0.259E+00
  -3.073  0.256E+00  0.256E+00
  -3.053  0.252E+00  0.252E+00
  -3.033  0.247E+00  0.247E+00
  -3.013  0.244E+00  0.244E+00
  -2.993  0.241E+00  0.241E+00
  -2.973  0.239E+00  0.239E+00
  -2.953  0.237E+00  0.237E+00
  -2.933  0.234E+00  0.234E+00
  -2.913  0.232E+00  0.232E+00
  -2.893  0.229E+00  0.229E+00
  -2.873  0.227E+00  0.227E+00
  -2.853  0.224E+00  0.224E+00
  -2.833  0.222E+00  0.222E+00
  -2.813  0.218E+00  0.218E+00
  -2.793  0.214E+00  0.214E+00
  -2.773  0.212E+00  0.212E+00
  -2.753  0.209E+00  0.209E+00
  -2.733  0.207E+00  0.207E+00
  -2.713  0.205E+00  0.205E+00
  -2.693  0.202E+00  0.202E+00
  -2.673  0.200E+00  0.200E+00
  -2.653  0.198E+00  0.198E+00
  -2.633  0.195E+00  0.195E+00
  -2.613  0.192E+00  0.192E+00
  -2.593  0.189E+00  0.189E+00
  -2.573  0.186E+00  0.186E+00
  -2.553  0.183E+00  0.183E+00
  -2.533  0.180E+00  0.180E+00
  -2.513  0.177E+00  0.177E+00
  -2.493  0.175E+00  0.175E+00
  -2.473  0.172E+00  0.172E+00
  -2.453  0.170E+00  0.170E+00
  -2.433  0.167E+00  0.167E+00
  -2.413  0.164E+00  0.164E+00
  -2.393  0.162E+00  0.162E+00
  -2.373  0.159E+00  0.159E+00
  -2.353  0.157E+00  0.157E+00
  -2.333  0.154E+00  0.154E+00
  -2.313  0.151E+00  0.151E+00
  -2.293  0.149E+00  0.149E+00
  -2.273  0.146E+00  0.146E+00
  -2.253  0.143E+00  0.143E+00
  -2.233  0.140E+00  0.140E+00
  -2.213  0.137E+00  0.137E+00
  -2.193  0.134E+00  0.134E+00
  -2.173  0.132E+00  0.132E+00
  -2.153  0.128E+00  0.128E+00
  -2.133  0.127E+00  0.127E+00
  -2.113  0.129E+00  0.129E+00
  -2.093  0.124E+00  0.124E+00
  -2.073  0.121E+00  0.121E+00
  -2.053  0.118E+00  0.118E+00
  -2.033  0.116E+00  0.116E+00
  -2.013  0.114E+00  0.114E+00
  -1.993  0.111E+00  0.111E+00
  -1.973  0.120E+00  0.120E+00
  -1.953  0.106E+00  0.106E+00
  -1.933  0.923E-01  0.923E-01
  -1.913  0.820E-01  0.820E-01
  -1.893  0.728E-01  0.728E-01
  -1.873  0.642E-01  0.642E-01
  -1.853  0.560E-01  0.560E-01
  -1.833  0.483E-01  0.483E-01
  -1.813  0.409E-01  0.409E-01
  -1.793  0.338E-01  0.338E-01
  -1.773  0.269E-01  0.269E-01
  -1.753  0.208E-01  0.208E-01
  -1.733  0.161E-01  0.161E-01
  -1.713  0.122E-01  0.122E-01
  -1.693  0.921E-02  0.921E-02
  -1.673  0.707E-02  0.707E-02
  -1.653  0.593E-02  0.593E-02
  -1.633  0.585E-02  0.585E-02
  -1.613  0.720E-02  0.720E-02
  -1.593  0.102E-01  0.102E-01
  -1.573  0.138E-01  0.138E-01
  -1.553  0.181E-01  0.181E-01
  -1.533  0.229E-01  0.229E-01
  -1.513  0.282E-01  0.282E-01
  -1.493  0.339E-01  0.339E-01
  -1.473  0.401E-01  0.401E-01
  -1.453  0.466E-01  0.466E-01
  -1.433  0.536E-01  0.536E-01
  -1.413  0.604E-01  0.604E-01
  -1.393  0.667E-01  0.667E-01
  -1.373  0.720E-01  0.720E-01
  -1.353  0.765E-01  0.765E-01
  -1.333  0.810E-01  0.810E-01
  -1.313  0.888E-01  0.888E-01
  -1.293  0.921E-01  0.921E-01
  -1.273  0.977E-01  0.977E-01
  -1.253  0.102E+00  0.102E+00
  -1.233  0.103E+00  0.103E+00
  -1.213  0.105E+00  0.105E+00
  -1.193  0.108E+00  0.108E+00
  -1.173  0.112E+00  0.112E+00
  -1.153  0.116E+00  0.116E+00
  -1.133  0.119E+00  0.119E+00
  -1.113  0.122E+00  0.122E+00
  -1.093  0.125E+00  0.125E+00
  -1.073  0.128E+00  0.128E+00
  -1.053  0.131E+00  0.131E+00
  -1.033  0.134E+00  0.134E+00
  -1.013  0.140E+00  0.140E+00
  -0.993  0.144E+00  0.144E+00
  -0.973  0.147E+00  0.147E+00
  -0.953  0.150E+00  0.150E+00
  -0.933  0.154E+00  0.154E+00
  -0.913  0.158E+00  0.158E+00
  -0.893  0.162E+00  0.162E+00
  -0.873  0.167E+00  0.167E+00
  -0.853  0.177E+00  0.177E+00
  -0.833  0.205E+00  0.205E+00
  -0.813  0.223E+00  0.223E+00
  -0.793  0.243E+00  0.243E+00
  -0.773  0.274E+00  0.274E+00
  -0.753  0.303E+00  0.303E+00
  -0.733  0.341E+00  0.341E+00
  -0.713  0.481E+00  0.481E+00
  -0.693  0.362E+00  0.362E+00
  -0.673  0.311E+00  0.311E+00
  -0.653  0.281E+00  0.281E+00
  -0.633  0.261E+00  0.261E+00
  -0.613  0.246E+00  0.246E+00
  -0.593  0.233E+00  0.233E+00
  -0.573  0.222E+00  0.222E+00
  -0.553  0.214E+00  0.214E+00
  -0.533  0.207E+00  0.207E+00
  -0.513  0.201E+00  0.201E+00
  -0.493  0.195E+00  0.195E+00
  -0.473  0.189E+00  0.189E+00
  -0.453  0.184E+00  0.184E+00
  -0.433  0.179E+00  0.179E+00
  -0.413  0.174E+00  0.174E+00
  -0.393  0.170E+00  0.170E+00
  -0.373  0.165E+00  0.165E+00
  -0.353  0.162E+00  0.162E+00
  -0.333  0.158E+00  0.158E+00
  -0.313  0.154E+00  0.154E+00
  -0.293  0.151E+00  0.151E+00
  -0.273  0.148E+00  0.148E+00
  -0.253  0.146E+00  0.146E+00
  -0.233  0.143E+00  0.143E+00
  -0.213  0.141E+00  0.141E+00
  -0.193  0.139E+00  0.139E+00
  -0.173  0.137E+00  0.137E+00
  -0.153  0.134E+00  0.134E+00
  -0.133  0.132E+00  0.132E+00
  -0.113  0.130E+00  0.130E+00
  -0.093  0.128E+00  0.128E+00
  -0.073  0.126E+00  0.126E+00
  -0.053  0.124E+00  0.124E+00
  -0.033  0.122E+00  0.122E+00
  -0.013  0.120E+00  0.120E+00
   0.007  0.118E+00  0.118E+00
   0.027  0.115E+00  0.115E+00
   0.047  0.114E+00  0.114E+00
   0.067  0.111E+00  0.111E+00
   0.087  0.110E+00  0.110E+00
   0.107  0.108E+00  0.108E+00
   0.127  0.107E+00  0.107E+00
   0.147  0.106E+00  0.106E+00
   0.167  0.104E+00  0.104E+00
   0.187  0.103E+00  0.103E+00
   0.207  0.102E+00  0.102E+00
   0.227  0.101E+00  0.101E+00
   0.247  0.993E-01  0.993E-01
   0.267  0.981E-01  0.981E-01
   0.287  0.968E-01  0.968E-01
   0.307  0.956E-01  0.956E-01
   0.327  0.943E-01  0.943E-01
   0.347  0.930E-01  0.930E-01
   0.367  0.916E-01  0.916E-01
   0.387  0.902E-01  0.902E-01
   0.407  0.889E-01  0.889E-01
   0.427  0.876E-01  0.876E-01
   0.447  0.863E-01  0.863E-01
   0.467  0.851E-01  0.851E-01
   0.487  0.832E-01  0.832E-01
   0.507  0.821E-01  0.821E-01
   0.527  0.811E-01  0.811E-01
   0.547  0.803E-01  0.803E-01
   0.567  0.794E-01  0.794E-01
   0.587  0.786E-01  0.786E-01
   0.607  0.778E-01  0.778E-01
   0.627  0.769E-01  0.769E-01
   0.647  0.761E-01  0.761E-01
   0.667  0.752E-01  0.752E-01
   0.687  0.744E-01  0.744E-01
   0.707  0.735E-01  0.735E-01
   0.727  0.726E-01  0.726E-01
   0.747  0.717E-01  0.717E-01
   0.767  0.708E-01  0.708E-01
   0.787  0.699E-01  0.699E-01
   0.807  0.691E-01  0.691E-01
   0.827  0.682E-01  0.682E-01
   0.847  0.673E-01  0.673E-01
   0.867  0.664E-01  0.664E-01
   0.887  0.654E-01  0.654E-01
   0.907  0.642E-01  0.642E-01
   0.927  0.632E-01  0.632E-01
   0.947  0.624E-01  0.624E-01
   0.967  0.613E-01  0.613E-01
   0.987  0.604E-01  0.604E-01
   1.007  0.598E-01  0.598E-01
   1.027  0.592E-01  0.592E-01
   1.047  0.586E-01  0.586E-01
   1.067  0.580E-01  0.580E-01
   1.087  0.574E-01  0.574E-01
   1.107  0.568E-01  0.568E-01
   1.127  0.562E-01  0.562E-01
   1.147  0.556E-01  0.556E-01
   1.167  0.550E-01  0.550E-01
   1.187  0.544E-01  0.544E-01
   1.207  0.538E-01  0.538E-01
   1.227  0.532E-01  0.532E-01
   1.247  0.526E-01  0.526E-01
   1.267  0.519E-01  0.519E-01
   1.287  0.513E-01  0.513E-01
   1.307  0.506E-01  0.506E-01
   1.327  0.499E-01  0.499E-01
   1.347  0.491E-01  0.491E-01
   1.367  0.484E-01  0.484E-01
   1.387  0.477E-01  0.477E-01
   1.407  0.471E-01  0.471E-01
   1.427  0.464E-01  0.464E-01
   1.447  0.457E-01  0.457E-01
   1.467  0.447E-01  0.447E-01
   1.487  0.440E-01  0.440E-01
   1.507  0.435E-01  0.435E-01
   1.527  0.430E-01  0.430E-01
   1.547  0.426E-01  0.426E-01
   1.567  0.422E-01  0.422E-01
   1.587  0.417E-01  0.417E-01
   1.607  0.413E-01  0.413E-01
   1.627  0.409E-01  0.409E-01
   1.647  0.405E-01  0.405E-01
   1.667  0.400E-01  0.400E-01
   1.687  0.397E-01  0.397E-01
   1.707  0.401E-01  0.401E-01
   1.727  0.410E-01  0.410E-01
   1.747  0.409E-01  0.409E-01
   1.767  0.410E-01  0.410E-01
   1.787  0.414E-01  0.414E-01
   1.807  0.421E-01  0.421E-01
   1.827  0.427E-01  0.427E-01
   1.847  0.431E-01  0.431E-01
   1.867  0.436E-01  0.436E-01
   1.887  0.442E-01  0.442E-01
   1.907  0.452E-01  0.452E-01
   1.927  0.463E-01  0.463E-01
   1.947  0.477E-01  0.477E-01
   1.967  0.496E-01  0.496E-01
   1.987  0.504E-01  0.504E-01
   2.007  0.490E-01  0.490E-01
   2.027  0.492E-01  0.492E-01
   2.047  0.494E-01  0.494E-01
   2.067  0.498E-01  0.498E-01
   2.087  0.502E-01  0.502E-01
   2.107  0.505E-01  0.505E-01
   2.127  0.508E-01  0.508E-01
   2.147  0.511E-01  0.511E-01
   2.167  0.514E-01  0.514E-01
   2.187  0.515E-01  0.515E-01
   2.207  0.515E-01  0.515E-01
   2.227  0.515E-01  0.515E-01
   2.247  0.512E-01  0.512E-01
   2.267  0.513E-01  0.513E-01
   2.287  0.514E-01  0.514E-01
   2.307  0.515E-01  0.515E-01
   2.327  0.515E-01  0.515E-01
   2.347  0.515E-01  0.515E-01
   2.367  0.514E-01  0.514E-01
   2.387  0.514E-01  0.514E-01
   2.407  0.515E-01  0.515E-01
   2.427  0.518E-01  0.518E-01
   2.447  0.517E-01  0.517E-01
   2.467  0.515E-01  0.515E-01
   2.487  0.514E-01  0.514E-01
   2.507  0.512E-01  0.512E-01
   2.527  0.511E-01  0.511E-01
   2.547  0.509E-01  0.509E-01
   2.567  0.506E-01  0.506E-01
   2.587  0.501E-01  0.501E-01
   2.607  0.495E-01  0.495E-01
   2.627  0.492E-01  0.492E-01
   2.647  0.490E-01  0.490E-01
   2.667  0.488E-01  0.488E-01
   2.687  0.486E-01  0.486E-01
   2.707  0.485E-01  0.485E-01
   2.727  0.485E-01  0.485E-01
   2.747  0.485E-01  0.485E-01
   2.767  0.488E-01  0.488E-01
   2.787  0.484E-01  0.484E-01
   2.807  0.484E-01  0.484E-01
   2.827  0.484E-01  0.484E-01
   2.847  0.481E-01  0.481E-01
   2.867  0.480E-01  0.480E-01
   2.887  0.479E-01  0.479E-01
   2.907  0.476E-01  0.476E-01
   2.927  0.473E-01  0.473E-01
   2.947  0.470E-01  0.470E-01
   2.967  0.467E-01  0.467E-01
   2.987  0.464E-01  0.464E-01
   3.007  0.461E-01  0.461E-01
   3.027  0.456E-01  0.456E-01
   3.047  0.453E-01  0.453E-01
   3.067  0.453E-01  0.453E-01
   3.087  0.445E-01  0.445E-01
   3.107  0.442E-01  0.442E-01
   3.127  0.440E-01  0.440E-01
   3.147  0.435E-01  0.435E-01
   3.167  0.430E-01  0.430E-01
   3.187  0.426E-01  0.426E-01
   3.207  0.422E-01  0.422E-01
   3.227  0.418E-01  0.418E-01
   3.247  0.413E-01  0.413E-01
   3.267  0.409E-01  0.409E-01
   3.287  0.405E-01  0.405E-01
   3.307  0.402E-01  0.402E-01
   3.327  0.398E-01  0.398E-01
   3.347  0.394E-01  0.394E-01
   3.367  0.390E-01  0.390E-01
   3.387  0.387E-01  0.387E-01
   3.407  0.383E-01  0.383E-01
   3.427  0.379E-01  0.379E-01
   3.447  0.376E-01  0.376E-01
   3.467  0.372E-01  0.372E-01
   3.487  0.368E-01  0.368E-01
   3.507  0.364E-01  0.364E-01
   3.527  0.361E-01  0.361E-01
   3.547  0.357E-01  0.357E-01
   3.567  0.354E-01  0.354E-01
   3.587  0.350E-01  0.350E-01
   3.607  0.346E-01  0.346E-01
   3.627  0.342E-01  0.342E-01
   3.647  0.338E-01  0.338E-01
   3.667  0.334E-01  0.334E-01
   3.687  0.329E-01  0.329E-01
   3.707  0.325E-01  0.325E-01
   3.727  0.320E-01  0.320E-01
   3.747  0.315E-01  0.315E-01
   3.767  0.311E-01  0.311E-01
   3.787  0.306E-01  0.306E-01
   3.807  0.302E-01  0.302E-01
   3.827  0.297E-01  0.297E-01
   3.847  0.291E-01  0.291E-01
   3.867  0.285E-01  0.285E-01
   3.887  0.281E-01  0.281E-01
   3.907  0.277E-01  0.277E-01
   3.927  0.273E-01  0.273E-01
   3.947  0.269E-01  0.269E-01
   3.967  0.266E-01  0.266E-01
   3.987  0.263E-01  0.263E-01
   4.007  0.261E-01  0.261E-01
   4.027  0.259E-01  0.259E-01
   4.047  0.255E-01  0.255E-01
   4.067  0.251E-01  0.251E-01
   4.087  0.248E-01  0.248E-01
   4.107  0.244E-01  0.244E-01
   4.127  0.240E-01  0.240E-01
   4.147  0.236E-01  0.236E-01
   4.167  0.232E-01  0.232E-01
   4.187  0.227E-01  0.227E-01
   4.207  0.222E-01  0.222E-01
   4.227  0.218E-01  0.218E-01
   4.247  0.213E-01  0.213E-01
   4.267  0.208E-01  0.208E-01
   4.287  0.202E-01  0.202E-01
   4.307  0.197E-01  0.197E-01
   4.327  0.192E-01  0.192E-01
   4.347  0.187E-01  0.187E-01
   4.367  0.182E-01  0.182E-01
   4.387  0.177E-01  0.177E-01
   4.407  0.172E-01  0.172E-01
   4.427  0.167E-01  0.167E-01
   4.447  0.163E-01  0.163E-01
   4.467  0.160E-01  0.160E-01
   4.487  0.156E-01  0.156E-01
   4.507  0.151E-01  0.151E-01
   4.527  0.147E-01  0.147E-01
   4.547  0.144E-01  0.144E-01
   4.567  0.142E-01  0.142E-01
   4.587  0.139E-01  0.139E-01
   4.607  0.135E-01  0.135E-01
   4.627  0.132E-01  0.132E-01
   4.647  0.128E-01  0.128E-01
   4.667  0.124E-01  0.124E-01
   4.687  0.121E-01  0.121E-01
   4.707  0.118E-01  0.118E-01
   4.727  0.115E-01  0.115E-01
   4.747  0.112E-01  0.112E-01
   4.767  0.111E-01  0.111E-01
   4.787  0.108E-01  0.108E-01
   4.807  0.106E-01  0.106E-01
   4.827  0.104E-01  0.104E-01
   4.847  0.102E-01  0.102E-01
   4.867  0.991E-02  0.991E-02
   4.887  0.965E-02  0.965E-02
   4.907  0.939E-02  0.939E-02
   4.927  0.916E-02  0.916E-02
   4.947  0.889E-02  0.889E-02
   4.967  0.863E-02  0.863E-02
   4.987  0.837E-02  0.837E-02
   5.007  0.811E-02  0.811E-02
   5.027  0.785E-02  0.785E-02
   5.047  0.755E-02  0.755E-02
   5.067  0.720E-02  0.720E-02
   5.087  0.689E-02  0.689E-02
   5.107  0.661E-02  0.661E-02
   5.127  0.635E-02  0.635E-02
   5.147  0.610E-02  0.610E-02
   5.167  0.585E-02  0.585E-02
   5.187  0.561E-02  0.561E-02
   5.207  0.537E-02  0.537E-02
   5.227  0.515E-02  0.515E-02
   5.247  0.494E-02  0.494E-02
   5.267  0.472E-02  0.472E-02
   5.287  0.451E-02  0.451E-02
   5.307  0.430E-02  0.430E-02
   5.327  0.410E-02  0.410E-02
   5.347  0.391E-02  0.391E-02
   5.367  0.372E-02  0.372E-02
   5.387  0.353E-02  0.353E-02
   5.407  0.334E-02  0.334E-02
   5.427  0.315E-02  0.315E-02
   5.447  0.298E-02  0.298E-02
   5.467  0.282E-02  0.282E-02
   5.487  0.266E-02  0.266E-02
   5.507  0.250E-02  0.250E-02
   5.527  0.234E-02  0.234E-02
   5.547  0.219E-02  0.219E-02
   5.567  0.205E-02  0.205E-02
   5.587  0.191E-02  0.191E-02
   5.607  0.177E-02  0.177E-02
   5.627  0.165E-02  0.165E-02
   5.647  0.157E-02  0.157E-02
   5.667  0.146E-02  0.146E-02
   5.687  0.133E-02  0.133E-02
   5.707  0.119E-02  0.119E-02
   5.727  0.106E-02  0.106E-02
   5.747  0.944E-03  0.944E-03
   5.767  0.833E-03  0.833E-03
   5.787  0.706E-03  0.706E-03
   5.807  0.564E-03  0.564E-03
   5.827  0.419E-03  0.419E-03
   5.847  0.287E-03  0.287E-03
   5.867  0.179E-03  0.179E-03
   5.887  0.959E-04  0.959E-04
   5.907  0.383E-04  0.383E-04
   5.927  0.710E-05  0.710E-05
   5.947  0.525E-06  0.525E-06
   5.967  0.606E-07  0.606E-07
   5.987  0.000E+00  0.000E+00
   6.007  0.000E+00  0.000E+00
   6.027  0.000E+00  0.000E+00
   6.047  0.000E+00  0.000E+00
   6.067  0.000E+00  0.000E+00
   6.087  0.000E+00  0.000E+00
   6.107  0.000E+00  0.000E+00
   6.127  0.000E+00  0.000E+00
   6.147  0.000E+00  0.000E+00
   6.167  0.000E+00  0.000E+00
   6.187  0.000E+00  0.000E+00
   6.207  0.000E+00  0.000E+00
   6.227  0.000E+00  0.000E+00
   6.247  0.000E+00  0.000E+00
   6.267  0.000E+00  0.000E+00
   6.287  0.000E+00  0.000E+00
   6.307  0.000E+00  0.000E+00
   6.327  0.000E+00  0.000E+00
   6.347  0.000E+00  0.000E+00
   6.367  0.000E+00  0.000E+00
   6.387  0.000E+00  0.000E+00
   6.407  0.000E+00  0.000E+00
   6.427  0.000E+00  0.000E+00
   6.447  0.000E+00  0.000E+00
   6.467  0.000E+00  0.000E+00
   6.487  0.000E+00  0.000E+00
   6.507  0.000E+00  0.000E+00
   6.527  0.000E+00  0.000E+00
   6.547  0.000E+00  0.000E+00
   6.567  0.000E+00  0.000E+00
   6.587  0.000E+00  0.000E+00
   6.607  0.232E-04  0.232E-04
   6.627  0.200E-02  0.200E-02
   6.647  0.492E-02  0.492E-02
   6.667  0.834E-02  0.834E-02
   6.687  0.123E-01  0.123E-01
   6.707  0.166E-01  0.166E-01
   6.727  0.212E-01  0.212E-01
   6.747  0.252E-01  0.252E-01
   6.767  0.276E-01  0.276E-01
   6.787  0.300E-01  0.300E-01
   6.807  0.325E-01  0.325E-01
   6.827  0.350E-01  0.350E-01
   6.847  0.373E-01  0.373E-01
   6.867  0.399E-01  0.399E-01
   6.887  0.426E-01  0.426E-01
   6.907  0.450E-01  0.450E-01
   6.927  0.475E-01  0.475E-01
   6.947  0.501E-01  0.501E-01
   6.967  0.526E-01  0.526E-01
   6.987  0.547E-01  0.547E-01
   7.007  0.559E-01  0.559E-01
   7.027  0.562E-01  0.562E-01
